EXFO   -  OTDR_REPORT

TRACE_FILE:  2_2_51PC_625.asc

OTDR:  FTB-7200D-12CD-EI

SERIAL_NUMBER:  728662

WAVELENGTH:  850.0 (MM-C)

DISTANCE_RANGE:  2.5000 km

PULSE_WIDTH:  10 ns

ACQUISITION_TIME: 1.00 min

FIBER_INDEX:  1.4800

HELIX_FACTOR:  0.00 %

RBS_FACTOR:  -66.30 dB

JOB_ID:  

CABLE_ID:  

FIBER_ID:  Viavi H2_002

FIBER_TYPE:  

OPERATOR_A:  

OPERATOR_B:  



DATE:  2024/11/08

TIME:  12:22



NUMBER_OF_AVERAGED_POINTS:  500



                                 FAULT TABLE



-------------------------------------------------------------------------------

No,Loc(km),Event Type,Loss(dB),Refl(dB),Atten(dB/km),Cumul(dB)



 1,0.0000,Launch Level,- - -, >-18.0 ,, 0.000

(null)

,,Fiber Section  (1.0089 km), 2.300 ,, 2.280 , 2.300

 2,1.0089,Reflective Event, 2.466 , -29.0 ,, 4.766

(null)

,,Fiber Section  (0.9988 km), 2.434 ,, 2.437 , 7.200

 3,2.0077,Reflective Event,-0.345 , -19.0 ,, 6.856

(null)

,,Fiber Section  (0.0100 km), 0.050 ,, 5.000 , 6.906

 4,2.0177,Merged Event, 1.525 , -19.6 ,, 8.431

(null)

,,Fiber Section  (0.2057 km), 1.028 ,, 5.000 , 9.459





  Link Loss: 9.46 dB    Link Length: 2.2234 km    Average Loss: 4.254 dB/km


POS(km)  VAL(dB)


0.0000 30.9601

0.0049 21.2176

0.0099 19.5461

0.0148 18.4753

0.0198 17.6700

0.0247 17.0552

0.0297 16.5721

0.0346 16.2048

0.0396 15.9197

0.0445 15.6951

0.0495 15.5376

0.0544 15.3961

0.0593 15.3003

0.0643 15.2224

0.0692 15.1532

0.0742 15.1049

0.0791 15.0524

0.0841 15.0215

0.0890 14.9874

0.0940 14.9605

0.0989 14.9284

0.1039 14.9075

0.1088 14.8870

0.1137 14.8722

0.1187 14.8486

0.1236 14.8293

0.1286 14.8196

0.1335 14.8105

0.1385 14.7931

0.1434 14.7833

0.1484 14.7709

0.1533 14.7514

0.1583 14.7439

0.1632 14.7369

0.1681 14.7173

0.1731 14.7081

0.1780 14.6894

0.1830 14.6794

0.1879 14.6648

0.1929 14.6592

0.1978 14.6373

0.2028 14.6358

0.2077 14.6231

0.2127 14.6068

0.2176 14.5954

0.2225 14.5902

0.2275 14.5798

0.2324 14.5614

0.2374 14.5518

0.2423 14.5347

0.2473 14.5324

0.2522 14.5190

0.2572 14.5040

0.2621 14.4983

0.2671 14.4839

0.2720 14.4785

0.2769 14.4588

0.2819 14.4544

0.2868 14.4466

0.2918 14.4281

0.2967 14.4207

0.3017 14.4098

0.3066 14.3914

0.3116 14.3854

0.3165 14.3692

0.3214 14.3625

0.3264 14.3425

0.3313 14.3370

0.3363 14.3250

0.3412 14.3088

0.3462 14.2958

0.3511 14.2920

0.3561 14.2779

0.3610 14.2638

0.3660 14.2487

0.3709 14.2482

0.3758 14.2340

0.3808 14.2335

0.3857 14.2177

0.3907 14.2013

0.3956 14.1986

0.4006 14.1829

0.4055 14.1659

0.4105 14.1501

0.4154 14.1473

0.4204 14.1362

0.4253 14.1199

0.4302 14.1130

0.4352 14.1035

0.4401 14.0929

0.4451 14.0843

0.4500 14.0607

0.4550 14.0608

0.4599 14.0487

0.4649 14.0269

0.4698 14.0235

0.4748 14.0164

0.4797 14.0050

0.4846 13.9933

0.4896 13.9864

0.4945 13.9658

0.4995 13.9492

0.5044 13.9544

0.5094 13.9324

0.5143 13.9177

0.5193 13.9112

0.5242 13.9023

0.5292 13.9041

0.5341 13.8728

0.5390 13.8684

0.5440 13.8592

0.5489 13.8523

0.5539 13.8386

0.5588 13.8169

0.5638 13.8179

0.5687 13.8077

0.5737 13.7950

0.5786 13.7924

0.5836 13.7751

0.5885 13.7608

0.5934 13.7488

0.5984 13.7419

0.6033 13.7393

0.6083 13.7217

0.6132 13.7082

0.6182 13.6914

0.6231 13.6855

0.6281 13.6667

0.6330 13.6564

0.6380 13.6567

0.6429 13.6349

0.6478 13.6273

0.6528 13.6127

0.6577 13.5996

0.6627 13.6036

0.6676 13.5792

0.6726 13.5669

0.6775 13.5610

0.6825 13.5326

0.6874 13.5386

0.6924 13.5283

0.6973 13.5240

0.7022 13.5051

0.7072 13.4975

0.7121 13.4915

0.7171 13.4680

0.7220 13.4546

0.7270 13.4555

0.7319 13.4357

0.7369 13.4302

0.7418 13.4197

0.7468 13.4104

0.7517 13.3893

0.7566 13.3903

0.7616 13.3815

0.7665 13.3559

0.7715 13.3459

0.7764 13.3475

0.7814 13.3350

0.7863 13.3050

0.7913 13.3097

0.7962 13.2983

0.8012 13.2821

0.8061 13.2907

0.8110 13.2665

0.8160 13.2656

0.8209 13.2444

0.8259 13.2329

0.8308 13.2336

0.8358 13.2190

0.8407 13.1978

0.8457 13.1933

0.8506 13.1768

0.8555 13.1623

0.8605 13.1599

0.8654 13.1474

0.8704 13.1302

0.8753 13.1157

0.8803 13.1004

0.8852 13.0926

0.8902 13.0841

0.8951 13.0815

0.9001 13.0704

0.9050 13.0546

0.9099 13.0509

0.9149 13.0403

0.9198 13.0219

0.9248 13.0181

0.9297 13.0122

0.9347 12.9844

0.9396 12.9842

0.9446 12.9463

0.9495 12.9555

0.9545 12.9382

0.9594 12.9261

0.9643 12.9219

0.9693 12.9076

0.9742 12.9025

0.9792 12.8977

0.9841 12.8761

0.9891 12.8754

0.9940 12.8643

0.9990 12.8682

1.0039 12.8218

1.0089 18.9848

1.0138 11.6419

1.0187 10.9223

1.0237 10.5550

1.0286 10.4682

1.0336 10.3539

1.0385 10.2629

1.0435 10.1746

1.0484 10.1485

1.0534 10.1038

1.0583 10.0634

1.0633 10.0268

1.0682 10.0146

1.0731 9.9824

1.0781 9.9908

1.0830 9.9307

1.0880 9.9735

1.0929 9.9210

1.0979 9.9283

1.1028 9.9274

1.1078 9.9010

1.1127 9.8760

1.1177 9.8266

1.1226 9.8548

1.1275 9.8136

1.1325 9.7905

1.1374 9.7863

1.1424 9.7863

1.1473 9.7424

1.1523 9.7714

1.1572 9.7466

1.1622 9.7572

1.1671 9.7215

1.1721 9.6677

1.1770 9.7012

1.1819 9.6868

1.1869 9.7026

1.1918 9.6043

1.1968 9.6815

1.2017 9.6376

1.2067 9.6346

1.2116 9.6051

1.2166 9.6386

1.2215 9.5665

1.2265 9.5379

1.2314 9.5535

1.2363 9.5546

1.2413 9.5084

1.2462 9.4846

1.2512 9.5509

1.2561 9.5033

1.2611 9.5576

1.2660 9.4810

1.2710 9.4861

1.2759 9.4777

1.2809 9.4824

1.2858 9.4645

1.2907 9.4540

1.2957 9.3797

1.3006 9.3890

1.3056 9.3644

1.3105 9.3920

1.3155 9.3336

1.3204 9.3712

1.3254 9.3278

1.3303 9.3132

1.3353 9.3030

1.3402 9.3402

1.3451 9.3674

1.3501 9.2645

1.3550 9.3367

1.3600 9.2262

1.3649 9.2290

1.3699 9.2630

1.3748 9.2258

1.3798 9.1875

1.3847 9.2680

1.3896 9.1893

1.3946 9.1780

1.3995 9.1929

1.4045 9.1463

1.4094 9.1599

1.4144 9.1164

1.4193 9.1465

1.4243 9.1149

1.4292 9.0403

1.4342 9.0910

1.4391 9.1259

1.4440 9.0004

1.4490 9.1025

1.4539 9.0120

1.4589 8.9814

1.4638 8.9966

1.4688 8.9842

1.4737 9.0306

1.4787 9.0819

1.4836 8.9641

1.4886 8.9766

1.4935 8.9703

1.4984 8.9865

1.5034 8.9300

1.5083 8.9035

1.5133 8.8854

1.5182 8.8851

1.5232 8.8583

1.5281 8.8214

1.5331 8.8509

1.5380 8.8168

1.5430 8.8900

1.5479 8.7501

1.5528 8.8079

1.5578 8.8086

1.5627 8.8389

1.5677 8.8234

1.5726 8.7191

1.5776 8.7911

1.5825 8.6983

1.5875 8.6402

1.5924 8.7841

1.5974 8.6495

1.6023 8.6645

1.6072 8.7052

1.6122 8.6245

1.6171 8.6496

1.6221 8.6659

1.6270 8.5483

1.6320 8.6501

1.6369 8.5066

1.6419 8.6064

1.6468 8.5990

1.6518 8.5895

1.6567 8.4745

1.6616 8.5918

1.6666 8.5308

1.6715 8.5562

1.6765 8.5350

1.6814 8.4915

1.6864 8.5446

1.6913 8.4801

1.6963 8.5078

1.7012 8.3129

1.7062 8.4733

1.7111 8.4061

1.7160 8.4413

1.7210 8.4818

1.7259 8.4256

1.7309 8.3162

1.7358 8.3746

1.7408 8.3043

1.7457 8.3719

1.7507 8.3241

1.7556 8.3138

1.7606 8.4178

1.7655 8.3509

1.7704 8.3519

1.7754 8.2255

1.7803 8.2518

1.7853 8.2189

1.7902 8.3188

1.7952 8.2282

1.8001 8.1914

1.8051 8.2425

1.8100 8.1632

1.8150 8.2069

1.8199 8.1466

1.8248 8.1757

1.8298 8.1950

1.8347 8.0664

1.8397 8.1914

1.8446 8.1391

1.8496 8.1098

1.8545 8.1372

1.8595 8.0814

1.8644 8.2407

1.8694 8.0566

1.8743 8.0464

1.8792 8.0322

1.8842 8.0330

1.8891 8.0971

1.8941 7.9940

1.8990 7.9405

1.9040 7.9823

1.9089 7.8864

1.9139 7.9035

1.9188 7.9037

1.9238 8.0639

1.9287 7.7863

1.9336 7.9558

1.9386 7.9175

1.9435 7.8399

1.9485 7.7269

1.9534 7.9911

1.9584 7.7945

1.9633 7.9635

1.9683 7.8370

1.9732 7.8571

1.9781 7.8177

1.9831 7.8308

1.9880 7.8618

1.9930 7.7740

1.9979 7.8809

2.0029 7.9672

2.0078 18.6947

2.0128 9.1910

2.0177 18.6667

2.0227 10.3094

2.0276 9.7648

2.0325 8.1940

2.0375 7.6455

2.0424 7.4471

2.0474 6.8344

2.0523 6.4622

2.0573 6.2257

2.0622 6.0754

2.0672 6.2622

2.0721 5.6115

2.0771 5.4819

2.0820 5.6103

2.0869 5.6855

2.0919 5.6041

2.0968 5.3484

2.1018 5.7122

2.1067 5.3581

2.1117 5.3266

2.1166 5.2630

2.1216 4.6306

2.1265 5.4114

2.1315 5.2121

2.1364 5.5707

2.1413 5.2546

2.1463 4.3107

2.1512 5.2500

2.1562 4.8248

2.1611 4.9181

2.1661 5.0865

2.1710 5.3901

2.1760 4.8636

2.1809 5.1084

2.1859 5.0006

2.1908 4.6423

2.1957 4.9906

2.2007 4.7140

2.2056 4.3445

2.2106 5.1513

2.2155 4.9717

2.2205 8.4222

2.2254 3.3979

2.2304 2.0749

2.2353 1.8117

2.2403 1.6348

2.2452 1.1196

2.2501 1.5101

2.2551 1.5709

2.2600 1.2961

2.2650 1.4705

2.2699 2.0495

2.2749 2.0622

2.2798 1.8166

2.2848 1.3947

2.2897 1.3967

2.2947 1.5022

2.2996 1.6481

2.3045 1.5740

2.3095 2.0698

2.3144 1.8405

2.3194 1.3614

2.3243 1.7268

2.3293 1.4257

2.3342 1.3374

2.3392 1.7812

2.3441 1.4128

2.3491 1.6140

2.3540 1.7119

2.3589 1.4051

2.3639 1.4001

2.3688 1.6146

2.3738 1.8912

2.3787 1.5425

2.3837 1.8580

2.3886 1.0288

2.3936 1.7890

2.3985 1.1083

2.4035 1.6635

2.4084 2.1863

2.4133 1.2302

2.4183 1.3337

2.4232 1.5973

2.4282 1.3814

2.4331 1.5213

2.4381 1.6379

2.4430 1.7765

2.4480 1.7343

2.4529 1.5010

2.4579 1.4923

2.4628 1.6057

2.4677 2.0959









TRACE_FILE:  2_2_51PC_625.asc

OTDR:  FTB-7200D-12CD-EI

SERIAL_NUMBER:  728662

WAVELENGTH:  1300.0 (MM-C)

DISTANCE_RANGE:  2.5000 km

PULSE_WIDTH:  10 ns

ACQUISITION_TIME: 1.00 min

FIBER_INDEX:  1.4900

HELIX_FACTOR:  0.00 %

RBS_FACTOR:  -73.70 dB

JOB_ID:  

CABLE_ID:  

FIBER_ID:  Viavi H2_002

FIBER_TYPE:  

OPERATOR_A:  

OPERATOR_B:  



DATE:  2024/11/08

TIME:  12:23



NUMBER_OF_AVERAGED_POINTS:  500



                                 FAULT TABLE



-------------------------------------------------------------------------------

No,Loc(km),Event Type,Loss(dB),Refl(dB),Atten(dB/km),Cumul(dB)



 1,0.0000,Launch Level,- - -, >-18.0 ,, 0.000

(null)

,,Fiber Section  (0.9987 km), 0.539 ,, 0.539 , 0.539

 2,0.9987,Reflective Event, 2.637 , -27.6 ,, 3.175

(null)

,,Fiber Section  (0.9885 km), 0.529 ,, 0.535 , 3.704

 3,1.9872,Reflective Event,-0.036 , -16.9 ,, 3.669

(null)

,,Fiber Section  (0.0099 km), 0.002 ,, 0.250 , 3.671

 4,1.9971,Merged Event, 1.275 , -16.8 ,, 4.946

(null)

,,Fiber Section  (0.2037 km), 0.448 ,, 2.200 , 5.395



  Link Loss: 5.39 dB    Link Length: 2.2007 km    Average Loss: 2.451 dB/km


POS(km)  VAL(dB)


0.0000 32.1399

0.0049 21.2394

0.0098 19.0897

0.0147 17.7697

0.0196 16.7992

0.0246 16.0619

0.0295 15.4655

0.0344 14.9921

0.0393 14.6403

0.0442 14.3417

0.0491 14.1328

0.0540 13.9503

0.0589 13.8098

0.0639 13.7351

0.0688 13.6075

0.0737 13.5504

0.0786 13.4990

0.0835 13.4469

0.0884 13.4204

0.0933 13.3889

0.0982 13.3575

0.1032 13.3346

0.1081 13.3067

0.1130 13.3027

0.1179 13.2827

0.1228 13.2716

0.1277 13.2721

0.1326 13.2633

0.1375 13.2472

0.1425 13.2390

0.1474 13.2317

0.1523 13.2151

0.1572 13.2096

0.1621 13.2205

0.1670 13.2020

0.1719 13.2125

0.1768 13.2101

0.1818 13.1851

0.1867 13.1874

0.1916 13.1767

0.1965 13.1720

0.2014 13.1716

0.2063 13.1649

0.2112 13.1584

0.2161 13.1641

0.2210 13.1650

0.2260 13.1569

0.2309 13.1475

0.2358 13.1602

0.2407 13.1394

0.2456 13.1561

0.2505 13.1403

0.2554 13.1299

0.2603 13.1416

0.2653 13.1354

0.2702 13.1185

0.2751 13.1172

0.2800 13.1237

0.2849 13.1231

0.2898 13.1172

0.2947 13.1162

0.2996 13.1092

0.3046 13.1193

0.3095 13.1171

0.3144 13.1042

0.3193 13.1151

0.3242 13.0897

0.3291 13.0879

0.3340 13.0965

0.3389 13.0839

0.3439 13.0904

0.3488 13.0793

0.3537 13.0810

0.3586 13.0803

0.3635 13.0692

0.3684 13.0594

0.3733 13.0698

0.3782 13.0596

0.3832 13.0534

0.3881 13.0463

0.3930 13.0681

0.3979 13.0538

0.4028 13.0506

0.4077 13.0552

0.4126 13.0473

0.4175 13.0479

0.4224 13.0439

0.4274 13.0442

0.4323 13.0433

0.4372 13.0449

0.4421 13.0273

0.4470 13.0223

0.4519 13.0429

0.4568 13.0309

0.4617 13.0222

0.4667 13.0381

0.4716 13.0227

0.4765 13.0324

0.4814 13.0064

0.4863 13.0062

0.4912 13.0169

0.4961 12.9998

0.5010 13.0148

0.5060 13.0184

0.5109 13.0133

0.5158 13.0027

0.5207 13.0046

0.5256 12.9905

0.5305 12.9883

0.5354 12.9941

0.5403 12.9920

0.5453 12.9914

0.5502 12.9765

0.5551 12.9907

0.5600 12.9795

0.5649 12.9737

0.5698 12.9853

0.5747 12.9723

0.5796 12.9710

0.5845 12.9794

0.5895 12.9727

0.5944 12.9628

0.5993 12.9601

0.6042 12.9627

0.6091 12.9613

0.6140 12.9565

0.6189 12.9505

0.6238 12.9556

0.6288 12.9667

0.6337 12.9486

0.6386 12.9446

0.6435 12.9424

0.6484 12.9473

0.6533 12.9384

0.6582 12.9268

0.6631 12.9449

0.6681 12.9265

0.6730 12.9348

0.6779 12.9363

0.6828 12.9231

0.6877 12.9207

0.6926 12.9131

0.6975 12.9162

0.7024 12.9190

0.7074 12.9194

0.7123 12.9382

0.7172 12.9144

0.7221 12.9151

0.7270 12.9234

0.7319 12.9070

0.7368 12.9074

0.7417 12.9069

0.7467 12.8942

0.7516 12.8947

0.7565 12.9026

0.7614 12.8991

0.7663 12.8866

0.7712 12.8786

0.7761 12.8749

0.7810 12.8925

0.7859 12.8922

0.7909 12.8906

0.7958 12.8738

0.8007 12.8892

0.8056 12.8993

0.8105 12.8799

0.8154 12.8815

0.8203 12.8781

0.8252 12.8784

0.8302 12.8690

0.8351 12.8597

0.8400 12.8818

0.8449 12.8647

0.8498 12.8691

0.8547 12.8568

0.8596 12.8744

0.8645 12.8616

0.8695 12.8589

0.8744 12.8443

0.8793 12.8564

0.8842 12.8452

0.8891 12.8428

0.8940 12.8564

0.8989 12.8509

0.9038 12.8436

0.9088 12.8480

0.9137 12.8515

0.9186 12.8327

0.9235 12.8309

0.9284 12.8301

0.9333 12.8192

0.9382 12.8227

0.9431 12.8282

0.9481 12.8290

0.9530 12.8132

0.9579 12.8135

0.9628 12.8203

0.9677 12.8089

0.9726 12.8161

0.9775 12.8180

0.9824 12.8092

0.9873 12.7930

0.9923 12.7955

0.9972 20.8488

1.0021 13.9922

1.0070 12.0028

1.0119 11.0742

1.0168 10.8566

1.0217 10.6516

1.0266 10.4325

1.0316 10.3722

1.0365 10.2019

1.0414 10.2232

1.0463 10.1449

1.0512 10.0682

1.0561 10.1607

1.0610 10.1104

1.0659 10.0484

1.0709 10.1305

1.0758 10.0161

1.0807 10.0751

1.0856 10.1244

1.0905 10.0519

1.0954 10.0974

1.1003 10.0113

1.1052 10.0375

1.1102 10.0485

1.1151 10.0706

1.1200 9.9950

1.1249 10.0404

1.1298 10.0282

1.1347 10.0073

1.1396 10.0131

1.1445 9.9997

1.1495 10.0327

1.1544 10.0261

1.1593 10.0316

1.1642 9.9976

1.1691 9.9889

1.1740 10.0034

1.1789 10.0165

1.1838 9.9772

1.1887 9.9986

1.1937 9.9568

1.1986 9.9439

1.2035 9.9985

1.2084 9.9458

1.2133 9.9930

1.2182 10.0353

1.2231 9.9509

1.2280 9.9435

1.2330 9.9294

1.2379 9.9894

1.2428 10.0134

1.2477 9.9354

1.2526 10.0153

1.2575 9.9714

1.2624 9.9982

1.2673 9.9788

1.2723 9.8616

1.2772 9.9498

1.2821 9.9209

1.2870 9.9550

1.2919 9.8861

1.2968 9.9432

1.3017 9.9241

1.3066 9.9028

1.3116 9.9406

1.3165 9.9673

1.3214 9.9693

1.3263 9.9595

1.3312 9.9571

1.3361 9.9356

1.3410 9.8915

1.3459 9.9047

1.3509 9.8846

1.3558 9.8848

1.3607 9.8627

1.3656 9.9141

1.3705 9.8548

1.3754 9.8387

1.3803 9.9124

1.3852 9.8625

1.3901 9.9388

1.3951 9.8713

1.4000 9.8507

1.4049 9.9172

1.4098 9.8897

1.4147 9.9009

1.4196 9.8613

1.4245 9.8827

1.4294 9.8551

1.4344 9.8059

1.4393 9.8322

1.4442 9.9001

1.4491 9.8487

1.4540 9.8331

1.4589 9.7924

1.4638 9.8865

1.4687 9.8040

1.4737 9.8270

1.4786 9.8346

1.4835 9.8844

1.4884 9.8556

1.4933 9.8420

1.4982 9.8103

1.5031 9.8042

1.5080 9.7889

1.5130 9.8218

1.5179 9.8187

1.5228 9.8016

1.5277 9.7946

1.5326 9.8042

1.5375 9.8359

1.5424 9.7780

1.5473 9.7721

1.5522 9.8194

1.5572 9.8305

1.5621 9.8492

1.5670 9.7952

1.5719 9.8502

1.5768 9.7853

1.5817 9.7895

1.5866 9.8321

1.5915 9.8075

1.5965 9.7771

1.6014 9.7537

1.6063 9.8051

1.6112 9.8063

1.6161 9.7755

1.6210 9.8272

1.6259 9.7713

1.6308 9.8165

1.6358 9.7604

1.6407 9.7122

1.6456 9.8301

1.6505 9.7794

1.6554 9.8259

1.6603 9.8035

1.6652 9.8190

1.6701 9.7502

1.6751 9.7122

1.6800 9.7373

1.6849 9.7051

1.6898 9.7769

1.6947 9.7506

1.6996 9.7121

1.7045 9.7443

1.7094 9.7806

1.7144 9.7917

1.7193 9.8159

1.7242 9.7825

1.7291 9.7328

1.7340 9.7264

1.7389 9.7166

1.7438 9.7377

1.7487 9.7408

1.7536 9.6599

1.7586 9.7138

1.7635 9.7194

1.7684 9.7894

1.7733 9.7171

1.7782 9.6964

1.7831 9.6954

1.7880 9.7164

1.7929 9.7583

1.7979 9.7411

1.8028 9.7206

1.8077 9.6864

1.8126 9.7492

1.8175 9.7235

1.8224 9.6448

1.8273 9.6840

1.8322 9.7128

1.8372 9.6717

1.8421 9.7009

1.8470 9.7411

1.8519 9.7058

1.8568 9.6540

1.8617 9.6925

1.8666 9.7082

1.8715 9.6909

1.8765 9.7384

1.8814 9.6754

1.8863 9.6928

1.8912 9.6762

1.8961 9.6984

1.9010 9.6418

1.9059 9.7089

1.9108 9.6943

1.9158 9.7099

1.9207 9.6836

1.9256 9.7197

1.9305 9.6415

1.9354 9.7250

1.9403 9.6299

1.9452 9.6163

1.9501 9.6467

1.9550 9.6520

1.9600 9.6051

1.9649 9.6533

1.9698 9.6006

1.9747 9.6643

1.9796 9.6872

1.9845 18.1220

1.9894 17.9816

1.9943 18.3335

1.9993 18.6978

2.0042 14.8170

2.0091 12.4167

2.0140 11.2479

2.0189 10.4688

2.0238 9.7423

2.0287 9.4749

2.0336 8.9267

2.0386 8.4811

2.0435 8.4141

2.0484 7.9528

2.0533 8.1393

2.0582 8.0906

2.0631 7.7359

2.0680 7.9438

2.0729 7.7794

2.0779 7.6466

2.0828 7.7873

2.0877 7.6785

2.0926 7.7829

2.0975 7.6128

2.1024 7.7074

2.1073 7.6955

2.1122 7.7220

2.1172 7.5948

2.1221 7.6809

2.1270 7.6056

2.1319 7.6060

2.1368 7.6928

2.1417 7.7210

2.1466 7.7767

2.1515 7.6891

2.1564 7.6452

2.1614 7.6215

2.1663 7.7206

2.1712 7.7132

2.1761 7.6985

2.1810 7.6105

2.1859 7.5810

2.1908 7.6267

2.1957 7.6133

2.2007 12.7016

2.2056 2.1665

2.2105 2.6520

2.2154 1.1830

2.2203 1.3410

2.2252 2.0555

2.2301 1.5280

2.2350 1.2794

2.2400 1.9233

2.2449 1.7744

2.2498 1.4484

2.2547 1.9977

2.2596 1.4773

2.2645 2.1671

2.2694 1.4471

2.2743 1.8423

2.2793 1.0912

2.2842 1.4783

2.2891 1.6688

2.2940 1.6190

2.2989 1.8301

2.3038 1.4634

2.3087 1.8095

2.3136 1.5079

2.3186 1.5454

2.3235 1.8084

2.3284 2.0032

2.3333 1.7769

2.3382 1.7738

2.3431 1.4038

2.3480 1.8710

2.3529 2.1061

2.3578 1.4423

2.3628 1.6536

2.3677 1.4077

2.3726 1.6762

2.3775 1.4349

2.3824 1.3106

2.3873 2.3711

2.3922 1.6604

2.3971 1.7808

2.4021 1.8126

2.4070 1.4043

2.4119 2.0232

2.4168 1.3658

2.4217 1.7947

2.4266 2.0491

2.4315 1.9773

2.4364 2.2139

2.4414 1.8515

2.4463 0.9039

2.4512 1.1911









